File: aluminum_5_50nm step1.25nm.csv
,R_nm,wavelength_nm,abs
0,5.0,300,0.0259216
25,5.0,348.987,0.0169008
50,5.0,405.974,0.0118693
75,5.0,472.265,0.00878336
100,5.0,549.382,0.00658267
125,5.0,639.091,0.00481432
150,5.0,743.449,0.00427109
175,5.0,864.847,0.00419417
200,6.25,300,0.0259216
225,6.25,348.987,0.0169008
250,6.25,405.974,0.0118693
275,6.25,472.265,0.00878336
300,6.25,549.382,0.00658267
325,6.25,639.091,0.00481432
350,6.25,743.449,0.00427109
375,6.25,864.847,0.00419417
400,7.5,300,0.109504
425,7.5,348.987,0.0565185
450,7.5,405.974,0.0347754
475,7.5,472.265,0.0237379
500,7.5,549.382,0.016899
525,7.5,639.091,0.0119255
550,7.5,743.449,0.0102808
575,7.5,864.847,0.0100794
600,8.75,300,0.17324
625,8.75,348.987,0.0747357
650,8.75,405.974,0.0433906
675,8.75,472.265,0.0289335
700,8.75,549.382,0.0203743
725,8.75,639.091,0.0142968
750,8.75,743.449,0.0122891
775,8.75,864.847,0.0120094
800,10.0,300,0.17324
825,10.0,348.987,0.0747357
850,10.0,405.974,0.0433906
875,10.0,472.265,0.0289335
900,10.0,549.382,0.0203743
925,10.0,639.091,0.0142968
950,10.0,743.449,0.0122891
975,10.0,864.847,0.0120094
1000,11.25,300,0.29899
1025,11.25,348.987,0.0803386
1050,11.25,405.974,0.0441244
1075,11.25,472.265,0.0295603
1100,11.25,549.382,0.0209883
1125,11.25,639.091,0.0148321
1150,11.25,743.449,0.0128367
1175,11.25,864.847,0.0125062
1200,12.5,300,1.57563
1225,12.5,348.987,0.443936
1250,12.5,405.974,0.224339
1275,12.5,472.265,0.168628
1300,12.5,549.382,0.189124
1325,12.5,639.091,0.260819
1350,12.5,743.449,0.162448
1375,12.5,864.847,0.135832
1400,13.75,300,0.557413
1425,13.75,348.987,0.320772
1450,13.75,405.974,0.0915023
1475,13.75,472.265,0.044215
1500,13.75,549.382,0.0279861
1525,13.75,639.091,0.0186895
1550,13.75,743.449,0.0156218
1575,13.75,864.847,0.0150606
1600,15.0,300,0.416217
1625,15.0,348.987,0.725098
1650,15.0,405.974,0.330037
1675,15.0,472.265,0.155419
1700,15.0,549.382,0.0592597
1725,15.0,639.091,0.0324496
1750,15.0,743.449,0.0245572
1775,15.0,864.847,0.0230637
1800,16.25,300,0.416217
1825,16.25,348.987,0.725098
1850,16.25,405.974,0.330037
1875,16.25,472.265,0.155419
1900,16.25,549.382,0.0592597
1925,16.25,639.091,0.0324496
1950,16.25,743.449,0.0245572
1975,16.25,864.847,0.0230637
2000,17.5,300,0.368526
2025,17.5,348.987,0.602139
2050,17.5,405.974,0.276366
2075,17.5,472.265,0.196261
2100,17.5,549.382,0.0631584
2125,17.5,639.091,0.0317564
2150,17.5,743.449,0.0232046
2175,17.5,864.847,0.021516
2200,18.75,300,0.61009
2225,18.75,348.987,0.327342
2250,18.75,405.974,0.295813
2275,18.75,472.265,0.295061
2300,18.75,549.382,0.110585
2325,18.75,639.091,0.0433586
2350,18.75,743.449,0.0281671
2375,18.75,864.847,0.0253727
2400,20.0,300,0.83915
2425,20.0,348.987,0.438491
2450,20.0,405.974,0.538519
2475,20.0,472.265,0.292284
2500,20.0,549.382,0.212288
2525,20.0,639.091,0.072826
2550,20.0,743.449,0.0420816
2575,20.0,864.847,0.0371035
2600,21.25,300,0.751947
2625,21.25,348.987,0.410475
2650,21.25,405.974,0.387019
2675,21.25,472.265,0.315067
2700,21.25,549.382,0.294218
2725,21.25,639.091,0.149914
2750,21.25,743.449,0.0571959
2775,21.25,864.847,0.0449911
2800,22.5,300,0.876912
2825,22.5,348.987,0.48419
2850,22.5,405.974,0.345628
2875,22.5,472.265,0.429522
2900,22.5,549.382,0.281728
2925,22.5,639.091,0.251393
2950,22.5,743.449,0.0883386
2975,22.5,864.847,0.0646439
3000,23.75,300,0.810974
3025,23.75,348.987,0.486268
3050,23.75,405.974,0.307397
3075,23.75,472.265,0.403608
3100,23.75,549.382,0.265456
3125,23.75,639.091,0.255032
3150,23.75,743.449,0.0890633
3175,23.75,864.847,0.063567
3200,25.0,300,0.78922
3225,25.0,348.987,0.792133
3250,25.0,405.974,0.381487
3275,25.0,472.265,0.294498
3300,25.0,549.382,0.264228
3325,25.0,639.091,0.286078
3350,25.0,743.449,0.169674
3375,25.0,864.847,0.103509
3400,26.25,300,0.808472
3425,26.25,348.987,0.814841
3450,26.25,405.974,0.421702
3475,26.25,472.265,0.288985
3500,26.25,549.382,0.290379
3525,26.25,639.091,0.261955
3550,26.25,743.449,0.190423
3575,26.25,864.847,0.114456
3600,27.5,300,1.09615
3625,27.5,348.987,0.653494
3650,27.5,405.974,0.499342
3675,27.5,472.265,0.314569
3700,27.5,549.382,0.34092
3725,27.5,639.091,0.255288
3750,27.5,743.449,0.259505
3775,27.5,864.847,0.161654
3800,28.75,300,1.04042
3825,28.75,348.987,0.605927
3850,28.75,405.974,0.533986
3875,28.75,472.265,0.304967
3900,28.75,549.382,0.307982
3925,28.75,639.091,0.262521
3950,28.75,743.449,0.273638
3975,28.75,864.847,0.175357
4000,30.0,300,1.12437
4025,30.0,348.987,0.826008
4050,30.0,405.974,0.612234
4075,30.0,472.265,0.366974
4100,30.0,549.382,0.284919
4125,30.0,639.091,0.271842
4150,30.0,743.449,0.258231
4175,30.0,864.847,0.184835
4200,31.25,300,1.21234
4225,31.25,348.987,0.823934
4250,31.25,405.974,0.572358
4275,31.25,472.265,0.42552
4300,31.25,549.382,0.287952
4325,31.25,639.091,0.277855
4350,31.25,743.449,0.259833
4375,31.25,864.847,0.193856
4400,32.5,300,1.1652
4425,32.5,348.987,0.933717
4450,32.5,405.974,0.534888
4475,32.5,472.265,0.44582
4500,32.5,549.382,0.284356
4525,32.5,639.091,0.276237
4550,32.5,743.449,0.253233
4575,32.5,864.847,0.192284
4600,33.75,300,1.24751
4625,33.75,348.987,0.867189
4650,33.75,405.974,0.643598
4675,33.75,472.265,0.504819
4700,33.75,549.382,0.335998
4725,33.75,639.091,0.274697
4750,33.75,743.449,0.265926
4775,33.75,864.847,0.203704
4800,35.0,300,1.23545
4825,35.0,348.987,0.985471
4850,35.0,405.974,0.70143
4875,35.0,472.265,0.52502
4900,35.0,549.382,0.380695
4925,35.0,639.091,0.27579
4950,35.0,743.449,0.27959
4975,35.0,864.847,0.213424
5000,36.25,300,1.21123
5025,36.25,348.987,1.08201
5050,36.25,405.974,0.75229
5075,36.25,472.265,0.557054
5100,36.25,549.382,0.41695
5125,36.25,639.091,0.278169
5150,36.25,743.449,0.278042
5175,36.25,864.847,0.213592
5200,37.5,300,1.27362
5225,37.5,348.987,1.03061
5250,37.5,405.974,0.751817
5275,37.5,472.265,0.51795
5300,37.5,549.382,0.421953
5325,37.5,639.091,0.274746
5350,37.5,743.449,0.26653
5375,37.5,864.847,0.205704
5400,38.75,300,1.26666
5425,38.75,348.987,0.992998
5450,38.75,405.974,0.75857
5475,38.75,472.265,0.553021
5500,38.75,549.382,0.463034
5525,38.75,639.091,0.333165
5550,38.75,743.449,0.28035
5575,38.75,864.847,0.222777
5600,40.0,300,1.27596
5625,40.0,348.987,1.05399
5650,40.0,405.974,0.798412
5675,40.0,472.265,0.586404
5700,40.0,549.382,0.452387
5725,40.0,639.091,0.332672
5750,40.0,743.449,0.277179
5775,40.0,864.847,0.220391
5800,41.25,300,1.26257
5825,41.25,348.987,1.08197
5850,41.25,405.974,0.864874
5875,41.25,472.265,0.635052
5900,41.25,549.382,0.479864
5925,41.25,639.091,0.370592
5950,41.25,743.449,0.294586
5975,41.25,864.847,0.234741
6000,42.5,300,1.21524
6025,42.5,348.987,1.09027
6050,42.5,405.974,0.875875
6075,42.5,472.265,0.683915
6100,42.5,549.382,0.495022
6125,42.5,639.091,0.403123
6150,42.5,743.449,0.300618
6175,42.5,864.847,0.24019
6200,43.75,300,1.18589
6225,43.75,348.987,1.0479
6250,43.75,405.974,0.894416
6275,43.75,472.265,0.661493
6300,43.75,549.382,0.493409
6325,43.75,639.091,0.398835
6350,43.75,743.449,0.300336
6375,43.75,864.847,0.238622
6400,45.0,300,1.03188
6425,45.0,348.987,1.11111
6450,45.0,405.974,0.896451
6475,45.0,472.265,0.699093
6500,45.0,549.382,0.529874
6525,45.0,639.091,0.430724
6550,45.0,743.449,0.333897
6575,45.0,864.847,0.260921
6600,46.25,300,0.985682
6625,46.25,348.987,1.10959
6650,46.25,405.974,0.926065
6675,46.25,472.265,0.726985
6700,46.25,549.382,0.562436
6725,46.25,639.091,0.435141
6750,46.25,743.449,0.35294
6775,46.25,864.847,0.273805
6800,47.5,300,0.986035
6825,47.5,348.987,1.13106
6850,47.5,405.974,0.918819
6875,47.5,472.265,0.747851
6900,47.5,549.382,0.586584
6925,47.5,639.091,0.436205
6950,47.5,743.449,0.363201
6975,47.5,864.847,0.280945
7000,48.75,300,0.986674
7025,48.75,348.987,1.10608
7050,48.75,405.974,0.985011
7075,48.75,472.265,0.799519
7100,48.75,549.382,0.618944
7125,48.75,639.091,0.469306
7150,48.75,743.449,0.395485
7175,48.75,864.847,0.303907
7200,50.0,300,0.934254
7225,50.0,348.987,1.10409
7250,50.0,405.974,1.01361
7275,50.0,472.265,0.82263
7300,50.0,549.382,0.634323
7325,50.0,639.091,0.486889
7350,50.0,743.449,0.410996
7375,50.0,864.847,0.315951
7399,50.0,1000,0.215774