File: data_test_aluminum_26nm_200wavelengths.csv
,wavelength_nm,abs
0,300,0.801921
1,301.821,0.78263
2,303.652,0.765067
3,305.495,0.749244
4,307.349,0.735122
5,309.214,0.722565
6,311.09,0.711442
7,312.978,0.701663
8,314.877,0.692946
9,316.788,0.685264
10,318.711,0.678698
11,320.645,0.673457
12,322.591,0.669859
13,324.548,0.667971
14,326.518,0.667975
15,328.499,0.669985
16,330.493,0.674016
17,332.498,0.680058
18,334.516,0.687799
19,336.546,0.696757
20,338.588,0.706382
21,340.643,0.715973
22,342.71,0.7247
23,344.79,0.731609
24,346.882,0.735856
25,348.987,0.736721
26,351.105,0.733714
27,353.236,0.726662
28,355.379,0.715662
29,357.536,0.70126
30,359.706,0.684232
31,361.888,0.665402
32,364.085,0.645588
33,366.294,0.625511
34,368.517,0.60577
35,370.753,0.58681
36,373.003,0.56882
37,375.267,0.551878
38,377.544,0.535953
39,379.835,0.520945
40,382.14,0.50677
41,384.459,0.493323
42,386.792,0.480393
43,389.139,0.467895
44,391.501,0.455778
45,393.877,0.444025
46,396.267,0.43264
47,398.672,0.42173
48,401.091,0.411267
49,403.525,0.401191
50,405.974,0.39149
51,408.437,0.382144
52,410.916,0.373135
53,413.409,0.364476
54,415.918,0.356293
55,418.442,0.348444
56,420.982,0.340954
57,423.536,0.333858
58,426.106,0.327196
59,428.692,0.321011
60,431.294,0.315416
61,433.911,0.310482
62,436.544,0.30611
63,439.193,0.302315
64,441.859,0.299107
65,444.54,0.296486
66,447.238,0.294449
67,449.952,0.292987
68,452.682,0.292179
69,455.429,0.291923
70,458.193,0.292164
71,460.974,0.292877
72,463.771,0.294033
73,466.585,0.295597
74,469.417,0.297528
75,472.265,0.299774
76,475.131,0.302256
77,478.015,0.304915
78,480.915,0.307678
79,483.834,0.31047
80,486.77,0.313206
81,489.724,0.315795
82,492.696,0.318145
83,495.686,0.320155
84,498.694,0.321632
85,501.72,0.322602
86,504.765,0.322999
87,507.828,0.322777
88,510.91,0.321902
89,514.01,0.320368
90,517.129,0.318187
91,520.267,0.315399
92,523.425,0.31204
93,526.601,0.308221
94,529.797,0.304029
95,533.012,0.299551
96,536.246,0.294883
97,539.5,0.290114
98,542.774,0.285331
99,546.068,0.280613
100,549.382,0.276035
101,552.716,0.27166
102,556.07,0.267532
103,559.444,0.263694
104,562.839,0.260177
105,566.255,0.257007
106,569.691,0.254202
107,573.148,0.251775
108,576.627,0.249731
109,580.126,0.248075
110,583.646,0.246827
111,587.188,0.245986
112,590.751,0.245531
113,594.336,0.245453
114,597.943,0.245741
115,601.572,0.246382
116,605.222,0.247362
117,608.895,0.248661
118,612.59,0.250261
119,616.308,0.25214
120,620.048,0.254609
121,623.81,0.257315
122,627.596,0.260198
123,631.404,0.263209
124,635.236,0.266297
125,639.091,0.269402
126,642.969,0.272459
127,646.871,0.275398
128,650.797,0.278143
129,654.746,0.280616
130,658.719,0.282734
131,662.717,0.284117
132,666.738,0.2847
133,670.784,0.284446
134,674.855,0.283312
135,678.95,0.281275
136,683.07,0.278339
137,687.216,0.274523
138,691.386,0.269874
139,695.582,0.264454
140,699.803,0.258341
141,704.049,0.251626
142,708.322,0.242202
143,712.62,0.232839
144,716.945,0.223634
145,721.296,0.214642
146,725.673,0.20591
147,730.076,0.197468
148,734.507,0.189338
149,738.964,0.181534
150,743.449,0.174061
151,747.96,0.166921
152,752.499,0.160109
153,757.066,0.154426
154,761.66,0.150666
155,766.282,0.147051
156,770.932,0.143573
157,775.611,0.140228
158,780.317,0.137008
159,785.053,0.133909
160,789.817,0.130925
161,794.61,0.128052
162,799.432,0.125285
163,804.283,0.122619
164,809.164,0.12005
165,814.074,0.117574
166,819.014,0.115187
167,823.984,0.11367
168,828.985,0.112574
169,834.015,0.1115
170,839.077,0.110449
171,844.168,0.10942
172,849.291,0.108413
173,854.445,0.107428
174,859.63,0.106466
175,864.847,0.105526
176,870.095,0.104609
177,875.375,0.103714
178,880.688,0.102842
179,886.032,0.101992
180,891.409,0.101166
181,896.818,0.098879
182,902.261,0.0964748
183,907.736,0.0939773
184,913.244,0.091385
185,918.786,0.0886989
186,924.362,0.085922
187,929.971,0.0830591
188,935.615,0.0801174
189,941.293,0.0771054
190,947.005,0.0740343
191,952.752,0.0709168
192,958.533,0.0677665
193,964.35,0.0645986
194,970.202,0.0614286
195,976.09,0.0582723
196,982.013,0.0551458
197,987.973,0.0519978
198,993.968,0.0489626
199,1000,0.0460761